
clear all;
close all;
clc;

N_fx=4096;          % specify number of data points in spatial frequency domain
dx_max=0.001;       % specify upper limit of data resolution

%% Import spectrum data from text file
% text file format:
% first column: wavelength (nm)
% second column: spectral intensity (linear scale)
%temp=importdata('D:\100820_test output.txt');  % Enter the file path
temp=importdata('D:\101103_OO (0.03 -0.03)(inter).txt');  % Enter the file path
if isfield(temp,'data')
    temp=temp.data;
end
lambda=[
530.69
530.9
531.12
531.33
531.54
531.76
531.97
532.18
532.4
532.61
532.83
533.04
533.25
533.47
533.68
533.89
534.11
534.32
534.53
534.75
534.96
535.18
535.39
535.6
535.82
536.03
536.24
536.46
536.67
536.88
537.1
537.31
537.52
537.74
537.95
538.16
538.38
538.59
538.8
539.02
539.23
539.44
539.66
539.87
540.08
540.3
540.51
540.72
540.94
541.15
541.36
541.58
541.79
542
542.22
542.43
542.64
542.85
543.07
543.28
543.49
543.71
543.92
544.13
544.35
544.56
544.77
544.98
545.2
545.41
545.62
545.84
546.05
546.26
546.47
546.69
546.9
547.11
547.33
547.54
547.75
547.96
548.18
548.39
548.6
548.82
549.03
549.24
549.45
549.67
549.88
550.09
550.3
550.52
550.73
550.94
551.15
551.37
551.58
551.79
552
552.22
552.43
552.64
552.85
553.07
553.28
553.49
553.7
553.91
554.13
554.34
554.55
554.76
554.98
555.19
555.4
555.61
555.83
556.04
556.25
556.46
556.67
556.89
557.1
557.31
557.52
557.73
557.95
558.16
558.37
558.58
558.79
559.01
559.22
559.43
559.64
559.85
560.07
560.28
560.49
560.7
560.91
561.13
561.34
561.55
561.76
561.97
562.18
562.4
562.61
562.82
563.03
563.24
563.46
563.67
563.88
564.09
564.3
564.51
564.73
564.94
565.15
565.36
565.57
565.78
565.99
566.21
566.42
566.63
566.84
567.05
567.26
567.47
567.69
567.9
568.11
568.32
568.53
568.74
568.95
569.17
569.38
569.59
569.8
570.01
570.22
570.43
570.64
570.86
571.07
571.28
571.49
571.7
571.91
572.12
572.33
572.54
572.76
572.97
573.18
573.39
573.6
573.81
574.02
574.23
574.44
574.66
574.87
575.08
575.29
575.5
575.71
575.92
576.13
576.34
576.55
576.76
576.97
577.19
577.4
577.61
577.82
578.03
578.24
578.45
578.66
578.87
579.08
579.29
579.5
579.71
579.92
580.13
580.35
580.56
580.77
580.98
581.19
581.4
581.61
581.82
582.03
582.24
582.45
582.66
582.87
583.08
583.29
583.5
583.71
583.92
584.13
584.34
584.55
584.76
584.97
585.18
585.39
585.6
585.81
586.03
586.24
586.45
586.66
586.87
587.08
587.29
587.5
587.71
587.92
588.13
588.34
588.55
588.76
588.97
589.18
589.39
589.6
589.81
590.02
590.23
590.44
590.65
590.86
591.07
591.27
591.48
591.69
591.9
592.11
592.32
592.53
592.74
592.95
593.16
593.37
593.58
593.79
594
594.21
594.42
594.63
594.84
595.05
595.26
595.47
595.68
595.89
596.1
596.31
596.52
596.73
596.93
597.14
597.35
597.56
597.77
597.98
598.19
598.4
598.61
598.82
599.03
599.24
599.45
599.66
599.87
600.07
600.28
600.49
600.7
600.91
601.12
601.33
601.54
601.75
601.96
602.17
602.37
602.58
602.79
603
603.21
603.42
603.63
603.84
604.05
604.26
604.46
604.67
604.88
605.09
605.3
605.51
605.72
605.93
606.14
606.34
606.55
606.76
606.97
607.18
607.39
607.6
607.81
608.01
608.22
608.43
608.64
608.85
609.06
609.27
609.47
609.68
609.89
610.1
610.31
610.52
610.73
610.93
611.14
611.35
611.56
611.77
611.98
612.18
612.39
612.6
612.81
613.02
613.23
613.43
613.64
613.85
614.06
614.27
614.48
614.68
614.89
615.1
615.31
615.52
615.72
615.93
616.14
616.35
616.56
616.77
616.97
617.18
617.39
617.6
617.81
618.01
618.22
618.43
618.64
618.85
619.05
619.26
619.47
619.68
619.88
620.09
620.3
620.51
620.72
620.92
621.13
621.34
621.55
621.75
621.96
622.17
622.38
622.59
622.79
623
623.21
623.42
623.62
623.83
624.04
624.25
624.45
624.66
624.87
625.08
625.28
625.49
625.7
625.91
626.11
626.32
626.53
626.74
626.94
627.15
627.36
627.56
627.77
627.98
628.19
628.39
628.6
628.81
629.02
629.22
629.43
629.64
629.84
630.05
630.26
630.47
630.67
630.88
631.09
631.29
631.5
631.71
631.92
632.12
632.33
632.54
632.74
632.95
633.16
633.36
633.57
633.78
633.98
634.19
634.4
634.6
634.81
635.02
635.23
635.43
635.64
635.85
636.05
636.26
636.47
636.67
636.88
637.09
637.29
637.5
637.71
637.91
638.12
638.33
638.53
638.74
638.94
639.15
639.36
639.56
639.77
639.98
640.18
640.39
640.6
640.8
641.01
641.22
641.42
641.63
641.83
642.04
642.25
642.45
642.66
642.87
643.07
643.28
643.48
643.69
643.9
644.1
644.31
644.52
644.72
644.93
645.13
645.34
645.55
645.75
645.96
646.16
646.37
646.58
646.78
646.99
647.19
647.4
647.61
647.81
648.02
648.22
648.43
648.63
648.84
649.05
649.25
649.46
649.66
649.87
650.07
650.28
650.49
650.69
650.9
651.1
651.31
651.51
651.72
651.93
652.13
652.34
652.54
652.75
652.95
653.16
653.36
653.57
653.78
653.98
654.19
654.39
654.6
654.8
655.01
655.21
655.42
655.62
655.83
656.03
656.24
656.44
656.65
656.86
657.06
657.27
657.47
657.68
657.88
658.09
658.29
658.5
658.7
658.91
659.11
659.32
659.52
659.73
659.93
660.14
660.34
660.55
660.75
660.96
661.16
661.37
661.57
661.78
661.98
662.19
662.39
662.6
662.8
663.01
663.21
663.42
663.62
663.82
664.03
664.23
664.44
664.64
664.85
665.05
665.26
665.46
665.67
665.87
666.08
666.28
666.49
666.69
666.89
667.1
667.3
667.51
667.71
667.92
668.12
668.33
668.53
668.73
668.94
669.14
669.35
669.55
669.76
669.96
670.16
670.37
670.57
670.78
670.98
671.19
671.39
671.59
671.8
672
672.21
672.41
672.61
672.82
673.02
673.23
673.43
673.64
673.84
674.04
674.25
674.45
674.66
674.86
675.06
675.27
675.47
675.67
675.88
676.08
676.29
676.49
676.69
676.9
677.1
677.31
677.51
677.71
677.92
678.12
678.32
678.53
678.73
678.93
679.14
679.34
679.55
679.75
679.95
680.16
680.36
680.56
680.77
680.97
681.17
681.38
681.58
681.78
681.99
682.19
682.39
682.6
682.8
683
683.21
683.41
683.61
683.82
684.02
684.22
684.43
684.63
684.83
685.04
685.24
685.44
685.65
685.85
686.05
686.26
686.46
686.66
686.87
687.07
687.27
687.47
687.68
687.88
688.08
688.29
688.49
688.69
688.9
689.1
689.3
689.5
689.71
689.91
690.11
690.32
690.52
690.72
690.92
691.13
691.33
691.53
691.73
691.94
692.14
692.34
692.55
692.75
692.95
693.15
693.36
693.56
693.76
693.96
694.17
694.37
694.57
694.77
694.98
695.18
695.38
695.58
695.79
695.99
696.19
696.39
696.6
696.8
697
697.2
697.4
697.61
697.81
698.01
698.21
698.42
698.62
698.82
699.02
699.22
699.43
699.63
699.83
700.03
700.24
700.44
700.64
700.84
701.04
701.25
701.45
701.65
701.85
702.05
702.26
702.46
702.66
702.86
703.06
703.27
703.47
703.67
703.87
704.07
704.27
704.48
704.68
704.88
705.08
705.28
705.48
705.69
705.89
706.09
706.29
706.49
706.69
706.9
707.1
707.3
707.5
707.7
707.9
708.11
708.31
708.51
708.71
708.91
709.11
709.31
709.52
709.72
709.92
710.12
710.32
710.52
710.72
710.92
711.13
711.33
711.53
711.73
711.93
712.13
712.33
712.53
712.74
712.94
713.14
713.34
713.54
713.74
713.94
714.14
714.34
714.55
714.75
714.95
715.15
715.35
715.55
715.75
715.95
716.15
716.35
716.56
716.76
716.96
717.16
717.36
717.56
717.76
717.96
718.16
718.36
718.56
718.76
718.96
719.17
719.37
719.57
719.77
719.97
720.17
720.37
720.57
720.77
720.97
721.17
721.37
721.57
721.77
721.97
722.17
722.37
722.57
722.77
722.98
723.18
723.38
723.58
723.78
723.98
724.18
724.38
724.58
724.78
724.98
725.18
725.38
725.58
725.78
725.98
726.18
726.38
726.58
726.78
726.98
727.18
727.38
727.58
727.78
727.98
728.18
728.38
728.58
728.78
728.98
729.18
729.38
729.58
729.78
729.98
730.18
730.38
730.58
730.78
730.98
731.18
731.38
731.58
731.78
731.98
732.18
732.38
732.58
732.78
732.98
733.18
733.37
733.57
733.77
733.97
734.17
734.37
734.57
734.77
734.97
735.17
735.37
735.57
735.77
735.97
736.17
736.37
736.57
736.77
736.97
737.16
737.36
737.56
737.76
737.96
738.16
738.36
738.56
738.76
738.96
739.16
739.36
739.56
739.75
739.95
740.15
740.35
740.55
740.75
740.95
741.15
741.35
741.55
741.74
741.94
742.14
742.34
742.54
742.74
742.94
743.14
743.34
743.53
743.73
743.93
744.13
744.33
744.53
744.73
744.93
745.13
745.32
745.52
745.72
745.92
746.12
746.32
746.52
746.71
746.91
747.11
747.31
747.51
747.71
747.91
748.1
748.3
748.5
748.7
748.9
749.1
749.29
749.49
749.69
749.89
750.09
750.29
750.48
750.68
750.88
751.08
751.28
751.48
751.67
751.87
752.07
752.27
752.47
752.67
752.86
753.06
753.26
753.46
753.66
753.85
754.05
754.25
754.45
754.65
754.84
755.04
755.24
755.44
755.64
755.83
756.03
756.23
756.43
756.62
756.82
757.02
757.22
757.42
757.61
757.81
758.01
758.21
758.4
758.6
758.8
759
759.2
759.39
759.59
759.79
759.99
760.18
760.38
760.58
760.78
760.97
761.17
761.37
761.57
761.76
761.96
762.16
762.36
762.55
762.75
762.95
763.14
763.34
763.54
763.74
763.93
764.13
764.33
764.53
764.72
764.92
765.12
765.31
765.51
765.71
765.91
766.1
766.3
766.5
766.69
766.89
767.09
767.29
767.48
767.68
767.88
768.07
768.27
768.47
768.66
768.86
769.06
769.25
769.45
769.65
769.84
770.04
770.24
770.44
770.63
770.83
771.03
771.22
771.42
771.62
771.81
772.01
772.21
772.4
772.6
772.8
772.99
773.19
773.38
773.58
773.78
773.97
774.17
774.37
774.56
774.76
774.96
775.15
775.35
775.55
775.74
775.94
776.13
776.33
776.53
776.72
776.92
777.12
777.31
777.51
777.7
777.9
778.1
778.29
778.49
778.69
778.88
779.08
779.27
779.47
779.67
779.86
780.06
780.25
780.45
780.65
780.84
781.04
781.23
781.43
781.63
781.82
782.02
782.21
782.41
782.6
782.8
783
783.19
783.39
783.58
783.78
783.97
784.17
784.37
784.56
784.76
784.95
785.15
785.34
785.54
785.74
785.93
786.13
786.32
786.52
786.71
786.91
787.1
787.3
787.49
787.69
787.89
788.08
788.28
788.47
788.67
788.86
789.06
789.25
789.45
789.64
789.84
790.03
790.23
790.42
790.62
790.81
791.01
791.2
791.4
791.59
791.79
791.99
792.18
792.38
792.57
792.77
792.96
793.16
793.35
793.55
793.74
793.93
794.13
794.32
794.52
794.71
794.91
795.1
795.3
795.49
795.69
795.88
796.08
796.27
796.47
796.66
796.86
797.05
797.25
797.44
797.64
797.83
798.02
798.22
798.41
798.61
798.8
799
799.19
799.39
799.58
799.78
799.97
800.16
800.36
800.55
800.75
800.94
801.14
801.33
801.52
801.72
801.91
802.11
802.3
802.5
802.69
802.88
803.08
803.27
803.47
803.66
803.86
804.05
804.24
804.44
804.63
804.83
805.02
805.21
805.41
805.6
805.8
805.99
806.18
806.38
806.57
806.77
806.96
807.15
807.35
807.54
807.73
807.93
808.12
808.32
808.51
808.7
808.9
809.09
809.28
809.48
809.67
809.87
810.06
810.25
810.45
810.64
810.83
811.03
811.22
811.41
811.61
811.8
811.99
812.19
812.38
812.57
812.77
812.96
813.15
813.35
813.54
813.73
813.93
814.12
814.31
814.51
814.7
814.89
815.09
815.28
815.47
815.67
815.86
816.05
816.25
816.44
816.63
816.83
817.02
817.21
817.41
817.6
817.79
817.98
818.18
818.37
818.56
818.76
818.95
819.14
819.33
819.53
819.72
819.91
820.11
820.3
820.49
820.68
820.88
821.07
821.26
821.46
821.65
821.84
822.03
822.23
822.42
822.61
822.8
823
823.19
823.38
823.57
823.77
823.96
824.15
824.34
824.54
824.73
824.92
825.11
825.31
825.5
825.69
825.88
826.08
826.27
826.46
826.65
826.84
827.04
827.23
827.42
827.61
827.81
828
828.19
828.38
828.57
828.77
828.96
829.15
829.34
829.53
829.73
829.92
830.11
830.3
830.49
830.69
830.88
831.07
831.26
831.45
831.65
831.84
832.03
832.22
832.41
832.61
832.8
832.99
833.18
833.37
833.56
833.76
833.95
834.14
834.33
834.52
834.71
834.91
835.1
835.29
835.48
835.67
835.86
836.05
836.25
836.44
836.63
836.82
837.01
837.2
837.39
837.59
837.78
837.97
838.16
838.35
838.54
838.73
838.93
839.12
839.31
839.5
839.69
839.88
840.07
840.26
840.46
840.65
840.84
841.03
841.22
841.41
841.6
841.79
841.98
842.17
842.37
842.56
842.75
842.94
843.13
843.32
843.51
843.7
843.89
844.08
844.27
844.47
844.66
844.85
845.04
845.23
845.42
845.61
845.8
845.99
846.18
846.37
846.56
846.75
846.95
847.14
847.33
847.52
847.71
847.9
848.09
848.28
848.47
848.66
848.85
849.04
849.23
849.42
849.61
849.8
849.99
850.18
850.37
850.56
850.75
850.94
851.13
851.32
851.52
851.71
851.9
852.09
852.28
852.47
852.66
852.85
853.04
853.23
853.42
853.61
853.8
853.99
854.18
854.37
854.56
854.75
854.94
855.13
855.32
855.51
855.7
855.89
856.08
856.27
856.46
856.65
856.84
857.02
857.21
857.4
857.59
857.78
857.97
858.16
858.35
858.54
858.73
858.92
859.11
859.3
859.49
859.68
859.87
860.06
860.25
860.44
860.63
860.82
861.01
861.2
861.39
861.57
861.76
861.95
862.14
862.33
862.52
862.71
862.9
863.09
863.28
863.47
863.66
863.85
864.04
864.22
864.41
864.6
864.79
864.98
865.17
865.36
865.55
865.74
865.93
866.12
866.3
866.49
866.68
866.87
867.06
867.25
867.44
867.63
867.82
868
868.19
868.38
868.57
868.76
868.95
869.14
869.33
869.51
869.7
869.89
870.08
870.27
870.46
870.65
870.84
871.02
871.21
871.4
871.59
871.78
871.97
872.16
872.34
872.53
872.72
872.91
873.1
873.29
873.47
873.66
873.85
874.04
874.23
874.42
874.6
874.79
874.98
875.17
875.36
875.55
875.73
875.92
876.11
876.3
876.49
876.67
876.86
877.05
877.24
877.43
877.62
877.8
877.99
878.18
878.37
878.56
878.74
878.93
879.12
879.31
879.49
879.68
879.87
880.06
880.25
880.43
880.62
880.81
881
881.18
881.37
881.56
881.75
881.94
882.12
882.31
882.5
882.69
882.87
883.06
883.25
883.44
883.62
883.81
884
884.19
884.37
884.56
884.75
884.94
885.12
885.31
885.5
885.69
885.87
886.06
886.25
886.43
886.62
886.81
887
887.18
887.37
887.56
887.75
887.93
888.12
888.31
888.49
888.68
888.87
889.06
889.24
889.43
889.62
889.8
889.99
890.18
890.36
890.55
890.74
890.92
891.11
891.3
891.49
891.67
891.86
892.05
892.23
892.42
892.61
892.79
892.98
893.17
893.35
893.54
893.73
893.91
894.1
894.29
894.47
894.66
894.85
895.03
895.22
895.41
895.59
895.78
895.97
896.15
896.34
896.52
896.71
896.9
897.08
897.27
897.46
897.64
897.83
898.02
898.2
898.39
898.57
898.76
898.95
899.13
899.32
899.5
899.69
899.88
900.06
900.25
900.44
900.62
900.81
900.99
901.18
901.37
901.55
901.74
901.92
902.11
902.3
902.48
902.67
902.85
903.04
903.22
903.41
903.6
903.78
903.97
904.15
904.34
904.53
904.71
904.9
905.08
905.27
905.45
905.64
905.82
906.01
906.2
906.38
906.57
906.75
906.94
907.12
907.31
907.49
907.68
907.87
908.05
908.24
908.42
908.61
908.79
908.98
909.16
909.35
909.53
909.72
909.9
910.09
910.27
910.46
910.65
910.83
911.02
911.2
911.39
911.57
911.76
911.94
912.13
912.31
912.5
912.68
912.87
913.05
913.24
913.42
913.61
913.79
913.98
914.16
914.35
914.53
914.72
914.9
915.08
915.27
915.45
915.64
915.82
916.01
916.19
916.38
916.56
916.75
916.93
917.12
917.3
917.49
917.67
917.85
918.04
918.22
918.41
918.59
918.78
918.96
919.15
919.33
919.52
919.7
919.88
920.07
920.25
920.44
920.62
920.81
920.99
921.17
921.36
921.54
921.73
921.91
922.1
922.28
922.46
922.65
922.83
923.02
923.2
923.38
923.57
923.75
923.94
924.12
924.3
924.49
924.67
924.86
925.04
925.22
925.41
925.59
925.78
925.96
926.14
926.33
926.51
926.69
926.88
927.06
927.25
927.43
927.61
927.8
927.98
928.16
928.35
928.53
928.71
928.9
929.08
929.27
929.45
929.63
929.82
930
930.18
930.37
930.55
930.73
930.92
931.1
931.28
931.47
931.65
931.83
932.02
932.2
932.38
932.57
932.75
932.93
933.12
933.3
933.48
933.67
933.85
934.03
934.22
934.4
934.58
934.76
934.95
935.13
935.31
935.5
935.68
935.86
936.05
936.23
936.41
936.59
936.78
936.96
937.14
937.33
937.51
937.69
937.87
938.06
938.24
938.42
938.61
938.79
938.97
939.15
939.34
939.52
939.7
939.88
940.07
940.25
940.43
940.61
940.8
940.98
941.16
941.34
941.53
941.71
941.89
942.07
942.26
942.44
942.62
942.8
942.99
943.17
943.35
943.53
943.71
943.9
944.08
944.26
944.44
944.63
944.81
944.99
945.17
945.35
945.54
945.72
945.9
946.08
946.26
946.45
946.63
946.81
946.99
947.17
947.36
947.54
947.72
947.9
948.08
948.27
948.45
948.63
948.81
948.99
949.17
949.36
949.54
949.72
949.9
950.08
950.26
950.45
950.63
950.81
950.99
951.17
951.35
951.54
951.72
951.9
952.08
952.26
952.44
952.62
952.81
952.99
953.17
953.35
953.53
953.71
953.89
954.08
954.26
954.44
954.62
954.8
954.98
955.16
955.34
955.53
955.71
955.89
956.07
956.25
956.43
956.61
956.79
956.97
957.16
957.34
957.52
957.7
957.88
958.06
958.24
958.42
958.6
958.78
958.97
959.15
959.33
959.51
959.69
959.87
960.05
960.23
960.41
960.59
960.77
960.95
961.13
961.32
961.5
961.68
961.86
962.04
962.22
962.4
962.58
962.76
962.94
963.12
963.3
963.48
963.66
963.84
964.02
964.2
964.38
964.56
964.74
964.92
965.11
965.29
965.47
965.65
965.83
966.01
966.19
966.37
966.55
966.73
966.91
967.09
967.27
967.45
967.63
967.81
967.99
968.17
968.35
968.53
968.71
968.89
969.07
969.25
969.43
969.61
969.79
969.97
970.15
970.33
970.51
970.69
970.87
971.05
971.23
971.41
971.59
971.77
971.94
972.12
972.3
972.48
972.66
972.84
973.02
973.2
973.38
973.56
973.74
973.92
974.1
974.28
974.46
974.64
974.82
975
975.18
975.36
975.53
975.71
975.89
976.07
976.25
976.43
976.61
976.79
976.97
977.15
977.33
977.51
977.69
977.87
978.04
978.22
978.4
978.58
978.76
978.94
979.12
979.3
979.48
979.66
979.83
980.01
980.19
980.37
980.55
980.73
980.91
981.09
981.27
981.44
981.62
981.8
981.98
982.16
982.34
982.52
982.7
982.87
983.05
983.23
983.41
983.59
983.77
983.95
984.12
984.3
984.48
984.66
984.84
985.02
985.2
985.37
985.55
985.73
985.91
986.09
986.27
986.44
986.62
986.8
986.98
987.16
987.34
987.51
987.69
987.87
988.05
988.23
988.4
988.58
988.76
988.94
989.12
989.3
989.47
989.65
989.83
990.01
990.19
990.36
990.54
990.72
990.9
991.07
991.25
991.43
991.61
991.79
991.96
992.14
992.32
992.5
992.68
992.85
993.03
993.21
993.39
993.56
993.74
993.92
994.1
994.27
994.45
994.63
994.81
994.98
995.16
995.34
995.52
995.69
995.87
996.05
996.23
996.4
996.58
996.76
996.94
997.11
997.29
997.47
997.65
997.82
998
998.18
998.35
998.53
998.71
998.89
999.06
999.24
999.42
999.59
999.77
999.95
1000.13
1000.3
1000.48
1000.66
1000.83
1001.01
1001.19
1001.36
1001.54
1001.72
1001.9
1002.07
1002.25
1002.43
1002.6
1002.78
1002.96
1003.13
1003.31
1003.49
1003.66
1003.84
1004.02
1004.19
1004.37
1004.55
1004.72
1004.9
1005.08
1005.25
1005.43
1005.61
1005.78
1005.96
1006.14
1006.31
1006.49
1006.66
1006.84
1007.02
1007.19
1007.37
1007.55
1007.72
1007.9
1008.08
1008.25
1008.43
1008.6
1008.78
1008.96
1009.13
1009.31
1009.49
1009.66
1009.84
1010.01
1010.19
1010.37
1010.54
1010.72
1010.89
1011.07
1011.25
1011.42
1011.6
1011.77
1011.95
1012.13
1012.3
1012.48
1012.65
1012.83
1013
1013.18
1013.36
1013.53
1013.71
1013.88
1014.06
1014.23
1014.41
1014.59
1014.76
1014.94
1015.11
1015.29
1015.46
1015.64
1015.82
1015.99
1016.17
1016.34
1016.52
1016.69
1016.87
1017.04
1017.22
1017.39
1017.57
1017.75
1017.92
1018.1
1018.27
1018.45
1018.62
1018.8
1018.97
1019.15
1019.32
1019.5
1019.67
1019.85
1020.02
1020.2
1020.37
1020.55
1020.72
1020.9
1021.07
1021.25
1021.42
1021.6
1021.77
1021.95
1022.12
1022.3
1022.47
1022.65
1022.82
1023
1023.17
1023.35
1023.52
1023.7
1023.87
1024.05
1024.22
1024.4
1024.57
1024.75
1024.92
1025.1
1025.27
1025.44
1025.62
1025.79
1025.97
1026.14
1026.32
1026.49
1026.67
1026.84
1027.02
1027.19
1027.36
1027.54
1027.71
1027.89
1028.06
1028.24
1028.41
1028.58
1028.76
1028.93
1029.11
1029.28
1029.46
1029.63
1029.8
1029.98
1030.15
1030.33
1030.5
1030.68
1030.85
1031.02
1031.2
1031.37
1031.55
1031.72
1031.89
1032.07
1032.24
1032.42
1032.59
1032.76
1032.94
1033.11
1033.29
1033.46
1033.63
1033.81
1033.98
1034.15
1034.33
1034.5
1034.68
1034.85
1035.02
1035.2
1035.37
1035.54
1035.72
1035.89
1036.06
1036.24
1036.41
1036.59
1036.76
1036.93
1037.11
1037.28
1037.45
1037.63
1037.8
1037.97
1038.15
1038.32
1038.49
1038.67
1038.84
1039.01
1039.19
1039.36
1039.53
1039.71
1039.88
1040.05
1040.23
1040.4
1040.57
1040.74
1040.92
1041.09
1041.26
1041.44
1041.61
1041.78
1041.96
1042.13
1042.3
1042.48
1042.65
1042.82
1042.99
1043.17
1043.34
1043.51
1043.69
1043.86
1044.03
1044.2
1044.38
1044.55
1044.72
1044.89
1045.07
1045.24
1045.41
1045.59
1045.76
1045.93
1046.1
1046.28
1046.45
1046.62
1046.79
1046.97
1047.14
1047.31
1047.48
1047.66
1047.83
1048
1048.17
];

S0=[
0.00119
9.10405E-4
6.91803E-4
9.69074E-4
-6.09975E-4
9.27448E-4
5.725E-4
2.38826E-4
-1.3128E-5
6.98527E-4
2.15363E-4
0.00134
3.89369E-4
6.30421E-4
4.83075E-4
-5.11147E-4
-1.59349E-4
0.00153
0.0012
-5.40465E-4
0.00146
9.09122E-4
7.5116E-4
0.00121
-1.13301E-4
0.00119
-4.55182E-4
0.00106
9.1311E-4
3.13058E-4
6.71012E-5
-4.095E-4
7.68272E-4
-8.26995E-4
0.00145
-3.44002E-5
6.66239E-4
0.0011
7.32692E-4
-3.68966E-4
6.63517E-4
1.40776E-4
3.72637E-5
7.62946E-4
7.3677E-4
-2.26511E-4
0.00111
4.14727E-4
7.97458E-4
7.65154E-4
6.66721E-4
2.51062E-4
0.00108
2.56696E-4
4.06161E-4
4.40731E-4
7.26549E-4
-3.13472E-4
8.66565E-4
4.01471E-4
4.83143E-4
-7.58721E-4
4.94271E-5
-2.88831E-4
1.91805E-4
8.15056E-4
1.03345E-4
0.0013
5.69325E-5
0.00117
2.98795E-4
3.27897E-4
0.00164
1.56623E-4
1.40445E-4
2.63818E-4
3.60547E-4
9.18286E-4
6.63477E-4
0.00105
9.09328E-5
6.18041E-4
8.19568E-4
-3.54297E-4
2.58005E-4
-1.87213E-4
8.11167E-5
7.9919E-4
8.55881E-5
0.00128
9.97918E-5
5.29106E-4
2.15689E-4
9.56982E-4
0.00104
6.68504E-4
5.55982E-5
1.60033E-4
1.42722E-4
9.40299E-5
0.00111
5.67447E-4
5.80809E-4
2.69392E-4
2.7088E-4
4.92233E-4
2.5924E-4
6.61899E-4
3.96605E-4
0.00108
3.27116E-4
1.5876E-4
-2.46412E-4
7.08845E-4
1.42471E-4
-1.83714E-4
0.00107
4.13183E-4
6.35312E-4
6.83643E-4
-8.59772E-5
7.68037E-4
1.08531E-4
0.00111
0.00186
-7.12753E-4
8.32366E-4
6.67041E-4
1.84354E-4
9.49219E-4
0.00168
7.89885E-5
5.19512E-4
-7.78076E-5
9.47299E-4
8.49453E-5
1.06536E-4
1.39596E-4
-1.32898E-4
-3.00577E-4
0.00161
0.00119
7.42802E-4
0.00115
-3.30795E-4
2.08809E-4
0.00119
1.52991E-4
-1.26251E-4
8.31654E-4
6.545E-4
1.69953E-4
-4.0779E-4
3.5166E-4
-2.84768E-5
5.77001E-4
-4.20183E-5
3.12789E-5
5.85627E-4
4.30768E-5
4.12816E-4
-5.83132E-5
4.51255E-4
5.00553E-4
3.72495E-4
3.07279E-4
8.02396E-4
-2.85487E-4
-6.69182E-4
8.1117E-4
-3.00256E-4
3.69941E-4
7.73928E-4
4.27014E-4
1.5924E-4
7.1275E-4
-2.61097E-4
-0.00105
-7.15887E-5
2.96755E-4
4.25291E-4
0.00103
8.53234E-4
6.64657E-5
0.00119
-2.5412E-4
9.32862E-4
1.90833E-4
-2.5627E-5
6.84447E-4
5.74238E-4
-3.22974E-5
0.00124
9.01629E-4
6.10449E-4
8.36259E-4
1.93304E-4
4.38956E-4
-4.48111E-5
4.41376E-4
7.75866E-4
6.7062E-4
0.00117
-3.81466E-4
4.7617E-4
-3.79958E-5
0.00135
6.01676E-4
-2.01357E-4
6.80733E-4
0.00135
5.1578E-4
0.00104
3.09122E-4
-9.56427E-5
6.58996E-4
-1.36271E-4
3.71909E-4
8.254E-4
2.18792E-4
-2.03484E-5
6.0497E-4
0.00125
8.88406E-5
2.23731E-4
8.6628E-4
2.45557E-4
-5.96088E-4
0.00103
7.47779E-5
0.00136
8.26718E-5
9.66095E-4
3.1457E-4
8.948E-4
4.91072E-4
0.00116
1.68291E-5
9.40956E-4
3.46085E-4
9.4297E-4
0.001
-4.47147E-5
8.7386E-4
0.00121
9.4159E-4
5.56955E-4
4.28105E-4
8.74761E-4
6.16934E-4
2.27646E-4
-4.35988E-4
0.00123
-8.70944E-5
-1.6943E-4
0.00119
4.16696E-6
-1.33926E-4
4.07364E-4
-4.10422E-4
-1.04735E-4
1.69894E-4
8.10312E-4
1.71781E-4
2.29818E-4
0.00179
-6.66313E-5
0.00141
4.11007E-4
4.84808E-4
-7.52028E-4
0.00128
9.33894E-5
0.00109
-1.76984E-4
6.39498E-4
3.93593E-4
-5.48833E-4
5.41851E-4
-6.33121E-4
3.8717E-4
-1.38242E-4
1.36489E-4
5.25739E-4
0.00126
8.54944E-4
2.4653E-4
8.45561E-4
6.34305E-4
2.27586E-4
8.96617E-4
5.56627E-4
5.64952E-4
6.24968E-4
-1.99097E-4
5.05199E-4
5.21732E-4
-9.18599E-5
9.50227E-6
3.00569E-4
2.26475E-4
1.87325E-4
-2.82367E-4
5.47662E-4
-5.58202E-4
5.71501E-4
1.08484E-4
6.68534E-4
5.69052E-4
-1.22563E-4
7.73351E-4
0.00109
6.05141E-4
6.17097E-4
6.80319E-4
3.15431E-4
2.49301E-4
2.21032E-4
0.00144
8.29457E-4
-2.20387E-4
6.75756E-4
8.32349E-4
5.40068E-4
0.00102
5.00549E-4
0.00101
2.5573E-4
0.00111
3.96446E-4
8.5774E-4
7.39492E-4
4.08093E-4
3.93018E-4
9.43408E-4
7.03585E-4
7.94273E-4
9.77773E-4
0.00148
0.00177
0.00167
0.00126
0.00203
6.97549E-4
0.0015
0.00117
0.00184
0.00161
0.002
0.00166
0.00303
0.00249
0.00104
0.00191
0.00196
0.00152
0.00191
0.00344
0.00309
0.0028
0.00352
0.00317
0.00342
0.0035
0.00377
0.00447
0.00358
0.00423
0.00461
0.00464
0.00421
0.00465
0.00531
0.00477
0.00595
0.0065
0.00667
0.00674
0.00641
0.00672
0.00699
0.00773
0.00758
0.00802
0.00849
0.00839
0.00943
0.00983
0.00974
0.01028
0.01054
0.01075
0.01093
0.01122
0.01136
0.01265
0.01226
0.01224
0.01292
0.01293
0.01329
0.01453
0.01496
0.01433
0.01636
0.0156
0.01591
0.01718
0.0167
0.01697
0.01778
0.01884
0.01813
0.01914
0.01936
0.01957
0.02045
0.02128
0.02127
0.02215
0.02222
0.02349
0.02306
0.02352
0.02455
0.02478
0.02513
0.02559
0.02649
0.02631
0.02681
0.02807
0.02901
0.02833
0.02894
0.03036
0.0294
0.03083
0.0316
0.03198
0.03286
0.0334
0.03403
0.0357
0.03528
0.03506
0.03609
0.03781
0.03789
0.03857
0.03877
0.03881
0.04072
0.04108
0.04152
0.04205
0.04313
0.04346
0.04434
0.04496
0.04501
0.04682
0.04681
0.04798
0.04848
0.04946
0.04969
0.05009
0.05162
0.0516
0.05282
0.05363
0.05318
0.05486
0.05625
0.05718
0.05811
0.05763
0.05904
0.05947
0.0607
0.06172
0.06261
0.06324
0.06421
0.06631
0.06529
0.06647
0.06781
0.06919
0.06896
0.07057
0.07141
0.07073
0.07416
0.07405
0.07445
0.07509
0.07633
0.07789
0.07796
0.07979
0.07988
0.08159
0.08267
0.0827
0.08456
0.0847
0.08642
0.08617
0.08822
0.08962
0.09156
0.09161
0.09247
0.09326
0.09328
0.0954
0.09714
0.09838
0.09932
0.10057
0.09937
0.10164
0.10353
0.1041
0.10437
0.10577
0.10836
0.10922
0.10838
0.11096
0.11204
0.11308
0.11474
0.11619
0.11707
0.11795
0.11913
0.12024
0.11996
0.12383
0.1235
0.12592
0.12856
0.12805
0.12954
0.13188
0.13198
0.13489
0.13707
0.1353
0.13685
0.13868
0.14142
0.14354
0.14313
0.14663
0.14736
0.14818
0.14982
0.15208
0.15313
0.15304
0.15231
0.15514
0.15591
0.1608
0.16046
0.16216
0.16333
0.16539
0.16692
0.16739
0.16871
0.1691
0.1728
0.17377
0.1754
0.17549
0.1786
0.17729
0.17982
0.18312
0.18652
0.18579
0.18804
0.19004
0.19082
0.19386
0.19483
0.19535
0.19647
0.19842
0.1979
0.20131
0.20185
0.20443
0.20757
0.20877
0.21198
0.21288
0.21231
0.21778
0.21787
0.21927
0.22208
0.2222
0.22517
0.22399
0.22591
0.22786
0.23178
0.23293
0.23638
0.23698
0.23867
0.24011
0.24231
0.24491
0.2457
0.24816
0.25063
0.25119
0.25219
0.25515
0.25631
0.25852
0.26225
0.26326
0.26346
0.26644
0.2685
0.27044
0.27353
0.27442
0.27411
0.27603
0.27948
0.28126
0.28389
0.28387
0.28805
0.28873
0.28944
0.29464
0.29555
0.29792
0.29997
0.30365
0.30423
0.30665
0.30753
0.30814
0.31176
0.31484
0.31565
0.31779
0.32077
0.32065
0.32298
0.32378
0.3261
0.32915
0.32975
0.33189
0.33853
0.33849
0.3413
0.34113
0.34459
0.34615
0.3461
0.35017
0.35193
0.3549
0.35633
0.35847
0.36223
0.36092
0.36351
0.36921
0.3707
0.37436
0.37248
0.3719
0.37569
0.37963
0.38544
0.38825
0.39182
0.38945
0.39516
0.3927
0.39724
0.39939
0.40136
0.40112
0.40409
0.40876
0.41007
0.41055
0.4116
0.41728
0.41607
0.42162
0.42215
0.42456
0.42377
0.42745
0.42822
0.43379
0.4348
0.43661
0.43737
0.44255
0.44335
0.4463
0.45041
0.45072
0.44949
0.45283
0.45427
0.45712
0.45938
0.46219
0.46548
0.46713
0.47107
0.47287
0.47397
0.47381
0.47816
0.4808
0.48247
0.4875
0.48962
0.4896
0.49342
0.49491
0.5025
0.49833
0.50236
0.50071
0.50559
0.49976
0.50695
0.51452
0.51449
0.519
0.52079
0.52302
0.52565
0.52461
0.52452
0.53366
0.5318
0.53747
0.53634
0.53413
0.53828
0.54236
0.55089
0.55102
0.54813
0.55562
0.55653
0.55829
0.56335
0.56145
0.56328
0.56091
0.57231
0.5748
0.57529
0.57877
0.58531
0.59004
0.59575
0.59716
0.59838
0.5974
0.60404
0.60693
0.61557
0.62225
0.62442
0.62234
0.61276
0.61373
0.61331
0.61342
0.61769
0.61777
0.61799
0.61908
0.6197
0.61473
0.62131
0.62629
0.62756
0.62851
0.62916
0.6323
0.63557
0.6401
0.63998
0.6423
0.64304
0.64918
0.64976
0.65317
0.65326
0.65419
0.65881
0.66782
0.6632
0.66679
0.66816
0.67043
0.67646
0.67254
0.67224
0.67666
0.68606
0.68387
0.68861
0.69308
0.68871
0.68797
0.68579
0.68904
0.69631
0.6983
0.70259
0.70038
0.70418
0.70586
0.71069
0.71687
0.7192
0.713
0.71402
0.71775
0.71804
0.7202
0.72187
0.72172
0.72725
0.72544
0.72737
0.73372
0.73907
0.73907
0.73286
0.73728
0.73811
0.74632
0.74687
0.7474
0.75057
0.74783
0.75366
0.75323
0.74817
0.753
0.75344
0.76047
0.75885
0.76217
0.76601
0.77001
0.77274
0.76962
0.76954
0.7718
0.78257
0.78056
0.77672
0.77986
0.78262
0.78639
0.78846
0.78966
0.79434
0.79347
0.79158
0.79091
0.79344
0.79399
0.80226
0.80436
0.81024
0.80372
0.80145
0.81168
0.81554
0.80861
0.81433
0.82266
0.82485
0.82616
0.82577
0.82234
0.82964
0.83376
0.83217
0.83096
0.83245
0.82965
0.83531
0.83536
0.83671
0.83406
0.8353
0.83751
0.84126
0.84398
0.84485
0.85029
0.85791
0.85081
0.85589
0.85927
0.86141
0.85699
0.85931
0.85705
0.85517
0.86147
0.86255
0.85747
0.85442
0.86001
0.86444
0.87536
0.87158
0.87474
0.87258
0.87394
0.88142
0.88496
0.88281
0.88412
0.88753
0.88997
0.88945
0.89507
0.8982
0.88146
0.89111
0.88703
0.89232
0.8978
0.89815
0.89911
0.90355
0.91075
0.89975
0.90361
0.91078
0.90304
0.90987
0.91172
0.91186
0.91788
0.91197
0.91657
0.9079
0.90833
0.91975
0.91464
0.91959
0.92084
0.92238
0.91654
0.92151
0.92011
0.92007
0.91808
0.91847
0.9153
0.92472
0.92251
0.92855
0.93028
0.92901
0.93896
0.93419
0.93681
0.93532
0.93681
0.94873
0.94223
0.93268
0.93164
0.93912
0.94074
0.94389
0.94628
0.94197
0.94247
0.94737
0.94826
0.9616
0.94937
0.95247
0.95842
0.94909
0.96144
0.95959
0.9593
0.96157
0.96084
0.96079
0.95877
0.95493
0.9462
0.9479
0.96152
0.9611
0.96091
0.95639
0.9561
0.95623
0.96713
0.97407
0.97297
0.97154
0.96906
0.97208
0.96686
0.97508
0.97897
0.98159
0.98711
0.98162
0.98262
0.9772
0.98532
0.98751
0.98404
0.98132
0.97624
0.97808
0.98349
0.98389
0.98228
1.00003
0.99576
0.99417
0.98631
0.99252
0.99585
0.98995
0.98493
0.99112
0.99149
0.99761
0.99719
1
0.99104
0.98994
1.00118
0.98555
0.98947
0.99503
0.98236
0.98843
0.99587
0.99147
0.99968
0.9969
1.00186
1.00262
1.00101
0.99086
0.99952
0.99213
0.98634
0.98913
0.99637
0.99407
1.0006
0.99348
0.99818
1.00034
1.00054
0.99965
0.99799
0.99909
0.98943
0.98091
0.98543
0.99614
1.00465
1.00051
1.00604
1.0008
0.99864
1.00536
1.00277
0.99177
0.98752
0.98471
0.98661
0.99421
0.99519
0.9925
0.98831
0.98113
0.98546
0.99432
0.9903
0.9973
0.99469
0.98713
0.98956
0.9843
0.98929
0.98806
0.9877
0.99123
0.99842
0.99168
0.99698
1.0043
0.99667
0.99174
0.99633
0.99285
0.99615
0.99704
0.98932
0.98838
0.99419
0.99858
0.99148
0.99748
0.99471
0.99657
0.99273
0.98581
0.98047
0.97586
0.97836
0.97239
0.98718
0.9843
0.98949
0.99415
0.98436
0.98089
0.97968
0.98516
0.98544
0.979
0.97258
0.96759
0.97509
0.98065
0.97285
0.98378
0.98087
0.97433
0.97344
0.96745
0.9657
0.96905
0.96495
0.96532
0.96222
0.96469
0.95974
0.96528
0.96426
0.97046
0.96616
0.96381
0.96719
0.9676
0.97739
0.97087
0.96603
0.96513
0.96321
0.96904
0.96561
0.95978
0.96222
0.95853
0.95854
0.9552
0.94694
0.94817
0.94634
0.95031
0.95925
0.95094
0.94429
0.94912
0.95227
0.95498
0.94614
0.94024
0.94173
0.93699
0.95076
0.95534
0.95087
0.94401
0.93683
0.93433
0.9434
0.94466
0.93575
0.93075
0.93588
0.94488
0.93974
0.93822
0.93671
0.93566
0.92513
0.9211
0.91889
0.9201
0.9247
0.92906
0.92759
0.92846
0.93018
0.92295
0.92381
0.91936
0.91277
0.90746
0.91213
0.90592
0.90741
0.91599
0.91035
0.91754
0.91199
0.91856
0.91599
0.91039
0.9047
0.91165
0.9139
0.91001
0.90093
0.89973
0.89694
0.89831
0.89689
0.90037
0.90058
0.89144
0.9016
0.90131
0.89801
0.90298
0.90214
0.90205
0.89581
0.89292
0.8854
0.88125
0.88212
0.87095
0.87951
0.88326
0.87907
0.89386
0.88536
0.8817
0.87008
0.87468
0.87845
0.87749
0.86683
0.86199
0.85295
0.85869
0.86464
0.87173
0.87404
0.87252
0.87131
0.87765
0.8671
0.86628
0.86754
0.86161
0.85788
0.8548
0.85349
0.85204
0.84308
0.8302
0.83921
0.84055
0.84454
0.84691
0.83972
0.84571
0.84619
0.85573
0.84901
0.84196
0.83859
0.83175
0.83503
0.83507
0.83648
0.84252
0.84066
0.83759
0.83862
0.84419
0.82495
0.82189
0.8218
0.8135
0.81803
0.82488
0.81918
0.81244
0.81297
0.79711
0.79976
0.8052
0.79727
0.79398
0.80229
0.7956
0.7951
0.78839
0.79156
0.79359
0.79207
0.78273
0.78669
0.78059
0.78929
0.78122
0.77385
0.78276
0.77886
0.76646
0.77072
0.76322
0.76064
0.76259
0.76835
0.77596
0.77094
0.7637
0.76987
0.76705
0.76523
0.75998
0.76084
0.76204
0.75211
0.74776
0.73959
0.74246
0.73439
0.73978
0.74317
0.7401
0.73773
0.73614
0.72909
0.72541
0.72239
0.72947
0.72786
0.72275
0.72464
0.72353
0.72274
0.72431
0.72253
0.71479
0.71449
0.70843
0.71255
0.7032
0.70071
0.6934
0.70091
0.70398
0.70224
0.69995
0.68955
0.69872
0.70781
0.70693
0.6915
0.6885
0.68575
0.68516
0.68413
0.68437
0.68717
0.687
0.68318
0.67737
0.67882
0.67378
0.67118
0.66673
0.6689
0.66354
0.6676
0.67056
0.66244
0.66848
0.66736
0.66215
0.65961
0.65811
0.65247
0.65377
0.65246
0.64708
0.63994
0.64219
0.64211
0.64202
0.64568
0.64093
0.64119
0.64224
0.64597
0.63966
0.64301
0.63368
0.62732
0.62571
0.62299
0.6251
0.62869
0.62204
0.61622
0.62036
0.62285
0.62324
0.61853
0.6137
0.61909
0.62541
0.61627
0.61644
0.61702
0.61301
0.60255
0.6068
0.60889
0.60261
0.59629
0.59805
0.60016
0.59957
0.59443
0.58654
0.591
0.58758
0.58831
0.58971
0.5897
0.58849
0.58605
0.58321
0.58254
0.57881
0.57919
0.57752
0.58047
0.58466
0.58206
0.57953
0.57264
0.57231
0.57109
0.57377
0.56545
0.56907
0.56054
0.56314
0.56273
0.55632
0.5528
0.55027
0.54955
0.54831
0.54731
0.54529
0.54777
0.54481
0.54216
0.54396
0.544
0.5404
0.53482
0.54136
0.53868
0.53881
0.53454
0.53741
0.52892
0.52653
0.52271
0.52345
0.52574
0.52531
0.51988
0.51791
0.52185
0.52074
0.51817
0.51501
0.51928
0.51535
0.5143
0.51385
0.51144
0.50792
0.50393
0.5007
0.50273
0.50348
0.50237
0.49889
0.49664
0.49986
0.50337
0.49956
0.49846
0.49444
0.48973
0.48993
0.48717
0.48565
0.48698
0.48789
0.48331
0.47979
0.48104
0.48503
0.48271
0.47692
0.47725
0.47519
0.47617
0.47313
0.47367
0.47084
0.46981
0.46521
0.46615
0.46169
0.46056
0.4632
0.46586
0.45998
0.4562
0.45709
0.45767
0.4588
0.4619
0.45818
0.45312
0.45182
0.4493
0.44752
0.441
0.44332
0.44065
0.44489
0.44158
0.4304
0.43375
0.43603
0.43225
0.43107
0.43045
0.42647
0.4298
0.4346
0.4317
0.43298
0.42542
0.42031
0.42267
0.42346
0.42396
0.42164
0.41919
0.41513
0.41349
0.41567
0.41921
0.41821
0.41359
0.41144
0.40763
0.40692
0.40749
0.40883
0.40814
0.40052
0.40058
0.40725
0.40284
0.39933
0.39764
0.39746
0.39462
0.39368
0.39024
0.39105
0.3896
0.38641
0.38522
0.38097
0.38463
0.38611
0.38422
0.39126
0.38153
0.3826
0.37928
0.37954
0.37666
0.37497
0.37708
0.37317
0.37226
0.36994
0.36905
0.37194
0.36946
0.37071
0.37218
0.37121
0.36882
0.36441
0.36553
0.36264
0.36003
0.36076
0.36098
0.35425
0.35736
0.35738
0.35438
0.35432
0.35111
0.34902
0.35143
0.35056
0.34411
0.34289
0.34338
0.34072
0.34118
0.34014
0.33652
0.342
0.34454
0.34114
0.33969
0.33609
0.33752
0.33766
0.33543
0.33416
0.33294
0.32908
0.33225
0.33362
0.33082
0.33149
0.33059
0.32747
0.3305
0.32517
0.32374
0.3222
0.31898
0.32278
0.32281
0.32081
0.31519
0.31137
0.31202
0.31336
0.31211
0.30931
0.30925
0.30405
0.30674
0.30597
0.30596
0.30273
0.30281
0.29827
0.29858
0.30084
0.29774
0.29802
0.2975
0.29687
0.29579
0.29664
0.29464
0.29356
0.29121
0.28691
0.28437
0.28699
0.28421
0.28314
0.28456
0.28772
0.28202
0.2776
0.27558
0.27822
0.28167
0.27657
0.27469
0.27294
0.27398
0.27742
0.27732
0.27647
0.27156
0.27059
0.26968
0.26996
0.26686
0.26703
0.26864
0.27074
0.27016
0.26862
0.26839
0.26516
0.26457
0.26483
0.26413
0.26505
0.2566
0.25773
0.26003
0.25567
0.25414
0.25635
0.25381
0.2513
0.25255
0.2516
0.25265
0.25316
0.2485
0.25
0.24772
0.24772
0.24843
0.25178
0.25021
0.24792
0.24346
0.24513
0.24293
0.23781
0.23546
0.23574
0.23814
0.23833
0.2355
0.23479
0.23165
0.23217
0.23052
0.23033
0.23331
0.2331
0.23202
0.23034
0.22855
0.22572
0.23012
0.22604
0.22441
0.22415
0.22512
0.22374
0.22366
0.22036
0.21853
0.22015
0.22059
0.22195
0.21921
0.21681
0.21615
0.21747
0.21158
0.2149
0.21244
0.2113
0.2115
0.20955
0.20908
0.20801
0.20523
0.20485
0.20372
0.20702
0.20869
0.2071
0.20282
0.20311
0.2021
0.20146
0.19905
0.20256
0.1986
0.19746
0.19684
0.19774
0.19596
0.19408
0.19357
0.1934
0.19369
0.1951
0.19305
0.19277
0.19164
0.19104
0.18982
0.18981
0.18712
0.19106
0.19055
0.18755
0.18689
0.18378
0.18131
0.18395
0.18319
0.18262
0.18519
0.1776
0.17991
0.17914
0.17585
0.17782
0.17325
0.17789
0.17505
0.17157
0.17176
0.17055
0.17015
0.17044
0.16723
0.17366
0.16976
0.16942
0.16726
0.1682
0.1697
0.16501
0.16721
0.16352
0.16526
0.16323
0.16107
0.1603
0.15922
0.15881
0.15675
0.15768
0.15799
0.15629
0.15562
0.15958
0.1567
0.15527
0.15203
0.15412
0.15272
0.14967
0.15416
0.15296
0.1523
0.15187
0.15116
0.14833
0.14629
0.14501
0.1471
0.14505
0.14179
0.14436
0.14119
0.14353
0.1401
0.13887
0.13924
0.14095
0.13982
0.13693
0.13818
0.13904
0.13701
0.13686
0.13774
0.13707
0.13595
0.13324
0.13313
0.13434
0.13471
0.13603
0.13221
0.13182
0.1307
0.12783
0.12956
0.12823
0.12858
0.12717
0.12662
0.12759
0.12598
0.12531
0.12611
0.12401
0.12315
0.12549
0.12563
0.12314
0.12393
0.12166
0.12382
0.11991
0.11772
0.12047
0.11926
0.12029
0.12012
0.11612
0.11504
0.11558
0.11336
0.11385
0.1122
0.11415
0.11494
0.1136
0.11283
0.11449
0.1135
0.11385
0.11243
0.1105
0.11172
0.10924
0.11103
0.10699
0.10853
0.10688
0.10685
0.1097
0.10562
0.10542
0.10514
0.10498
0.10671
0.10495
0.10382
0.10536
0.10126
0.10229
0.10222
0.10007
0.10006
0.10081
0.09845
0.10068
0.09876
0.10303
0.09997
0.09779
0.0989
0.09833
0.09819
0.09656
0.09704
0.09539
0.09591
0.09437
0.0948
0.09686
0.09363
0.09321
0.09208
0.09046
0.09125
0.09199
0.0897
0.09071
0.09194
0.09178
0.09143
0.09015
0.08491
0.08829
0.08499
0.08617
0.08917
0.08717
0.08851
0.08888
0.08452
0.08646
0.0841
0.08335
0.08391
0.08424
0.08502
0.0825
0.08167
0.08601
0.08135
0.08181
0.0815
0.07953
0.08165
0.08098
0.08002
0.07913
0.07873
0.0794
0.08095
0.07886
0.0781
0.07944
0.07547
0.0748
0.07332
0.07568
0.07509
0.0761
0.07288
0.07215
0.07567
0.07455
0.07282
0.0736
0.07345
0.07285
0.07258
0.07133
0.07305
0.07256
0.07303
0.06999
0.06953
0.06979
0.0701
0.06863
0.06861
0.06834
0.06474
0.06714
0.06544
0.06875
0.06797
0.06614
0.06603
0.06423
0.06394
0.06591
0.06791
0.06683
0.06608
0.06528
0.06462
0.06346
0.06675
0.06709
0.06476
0.06277
0.06263
0.06459
0.06526
0.06272
0.06265
0.06315
0.0596
0.06151
0.05945
0.06152
0.06057
0.06151
0.06229
0.05836
0.05873
0.05555
0.05674
0.05571
0.05857
0.05829
0.05833
0.05631
0.05535
0.05856
0.05885
0.05499
0.05412
0.05675
0.05272
0.05311
0.05267
0.05457
0.05573
0.04884
0.05256
0.05467
0.05286
0.05471
0.05256
0.05271
0.05027
0.05151
0.05366
0.04995
0.05152
0.05134
0.05253
0.04912
0.04976
0.04929
0.0493
0.0499
0.04786
0.04856
0.05095
0.04852
0.04649
0.04798
0.0496
0.04636
0.04912
0.04638
0.04683
0.04696
0.04756
0.04529
0.04702
0.04585
0.04539
0.04553
0.04355
0.04593
0.04481
0.0436
0.04404
0.04507
0.04184
0.04491
0.04639
0.0407
0.0412
0.04261
0.04281
0.04069
0.04234
0.04373
0.04604
0.03975
0.04088
0.0424
0.0398
0.04192
0.04141
0.04064
0.04181
0.03939
0.04276
0.03995
0.04019
0.03685
0.03758
0.03971
0.03887
0.03615
0.03779
0.04019
0.03795
0.03945
0.03931
0.03478
0.0362
0.03619
0.03914
0.0371
0.0368
0.03585
0.03484
0.03635
0.03692
0.03587
0.03727
0.03521
0.03467
0.03502
0.03531
0.036
0.03537
0.03396
0.03257
0.0344
0.03262
0.0319
0.03313
0.03469
0.0322
0.03523
0.03287
0.0317
0.0343
0.03143
0.03431
0.03318
0.03159
0.03298
0.03271
0.03053
0.03027
0.02945
0.03376
0.02968
0.03196
0.02898
0.03132
0.029
0.03197
0.02893
0.03055
0.02823
0.0303
0.02818
0.02847
0.03024
0.03141
0.02918
0.03152
0.03049
0.03057
0.02929
0.02788
0.02948
0.02739
0.02813
0.02815
0.02686
0.02927
0.02585
0.0264
0.02712
0.02213
0.02423
0.02679
0.02408
0.02532
0.03083
0.02832
0.02507
0.02498
0.02458
0.02434
0.02454
0.02517
0.02582
0.025
0.02623
0.02499
0.02739
0.02486
0.02375
0.02355
0.02423
0.02404
0.02496
0.02268
0.02421
0.02383
0.02154
0.02207
0.02491
0.02554
0.02127
0.02123
0.0207
0.02252
0.0221
0.022
0.02386
0.01968
0.02136
0.02233
0.02028
0.0224
0.02033
0.02194
0.01742
0.01962
0.02166
0.02331
0.02148
0.0194
0.01923
0.02083
0.01922
0.01944
0.0181
0.0173
0.01971
0.01909
0.01933
0.02042
0.01804
0.01673
0.01798
0.01841
0.01866
0.019
0.01846
0.01784
0.01948
0.0198
0.01687
0.01697
0.01617
0.01902
0.0162
0.01913
0.01803
0.01767
0.01591
0.01542
0.01815
0.01839
0.01894
0.01758
0.01765
0.01835
0.01576
0.01512
0.01779
0.01465
0.01499
0.01602
0.01324
0.01363
0.01901
0.01472
0.01668
0.01543
0.01491
0.01649
0.01594
0.01523
0.01419
0.01491
0.01541
0.01416
0.01649
0.01446
0.01423
0.01747
0.01435
0.01606
0.01598
0.01358
0.01483
0.01193
0.01355
0.01606
0.01114
0.01568
0.01533
0.0133
0.01336
0.01308
0.01335
0.01876
0.01203
0.01329
0.01279
0.01245
0.01472
0.01503
0.01363
0.01489
0.01093
0.01441
0.01139
0.01416
0.01017
0.01274
0.01459
0.01189
0.01319
0.01372
0.01105
0.0134
0.0113
0.01294
0.01292
0.01318
0.01286
0.01018
0.011
0.00875
0.01286
0.01154
0.0083
0.01309
0.01242
0.01234
0.0111
0.00994
0.01181
0.00968
0.01336
0.009
0.01102
0.01278
0.01242
0.00954
0.01196
0.0119
0.01154
0.00858
0.01459
0.01012
0.01126
0.01328
0.0117
0.01011
0.01003
0.00943
0.0101
0.00906
0.00722
0.00913
0.01003
0.00997
0.01069
0.01115
0.01472
0.01283
0.0088
0.01001
0.01439
0.01075
0.01275
0.01157
0.01083
0.01369
0.01112
0.00692
0.00982
0.01045
0.00976
0.00715
0.01062
0.00933
0.00781
0.00767
0.00878
0.0081
0.00963
0.00925
0.00649
0.00943
0.01102
0.00968
0.00542
0.00902
0.00498
0.00792
0.0093
0.01016
0.00924
0.00627
0.00777
0.00629
0.00784
0.00796
0.00831
0.0099
0.0115
0.00882
0.00886
0.0083
0.01007
0.00878
0.00687
0.00958
0.00341
0.00952
0.00504
0.00674
0.00768
0.0114
0.00983
0.0087
0.01107
0.0074
0.00935
0.00796
0.00877
0.00952
0.00684
0.00637
0.01033
0.00763
0.011
0.01055
0.00756
0.00683
0.00852
0.00417
0.00649
0.0074
0.00663
0.01043
0.00735
0.00934
0.00778
0.00967
0.00507
0.00489
0.00512
0.00676
0.00782
0.00767
0.00728
0.00882
0.00612
0.00618
0.00892
0.00645
0.00925
0.00631
0.00544
0.01015
0.00977
0.00487
0.00477
0.00774
0.00817
0.00837
0.00678
0.00662
0.00583
0.00386
0.0063
0.00667
0.00657
0.00859
0.00495
0.0067
0.004
0.00427
0.00583
0.00786
0.00415
0.00892
0.00729
0.00777
0.00159
0.00551
0.00516
0.00541
0.00231
0.0064
0.0052
0.00609
0.00652
-2.17463E-4
0.00579
0.00448
0.00426
0.00251
0.00535
0.0051
0.00341
0.0027
0.00536
0.00877
0.00285
0.00744
0.00945
0.00732
0.00495
0.00203
0.00229
0.0062
0.00744
0.00403
0.00257
0.00813
0.00393
0.00514
0.00891
0.00528
0.00836
0.00909
0.00581
0.00736
0.0022
0.00586
-2.38101E-4
0.00494
0.00455
0.00171
0.0064
0.00341
0.00317
-2.059E-4
0.00716
0.00383
0.00362
0.00293
0.00314
0.00403
0.00376
0.00452
0.00378
0.00773
0.00752
0.00267
0.00565
0.00284
0.00545
0.0044
7.89739E-4
0.00562
0.00411
0.00376
0.00424
0.00589
0.00504
0.00745
0.00508
0.0049
0.00416
];
%S0=10.^(S0/10);         % convert from log scale to linear
S0=S0(~isnan(lambda));
lambda=lambda(~isnan(lambda));
S0=S0(lambda>0.550);          % discard missleading data
lambda=lambda(lambda>0.550);  % discard missleading data

%% Convert from wavelength domain to spatial frequency domain
%Increase number of data points for accuracy
lambda2=min(lambda):(max(lambda)-min(lambda))/(N_fx-1):max(lambda);
S0=interp1(lambda,S0,lambda2,'spline');
lambda=lambda2;
S0=S0/max(S0);          % Normalize
%plot(lambda,S0)    % confirm spectrum

ilambda=1./lambda;
dfx=max(ilambda)/(N_fx-1);
fx=0:dfx:max(ilambda);
S=interp1(ilambda,S0.*lambda.^2,fx);
S(isnan(S))=0;

%% FFT and Hilbert transform
% Calculate suitable N_x for specified data resolution
N_x=2^(ceil(log2(N_fx/dx_max/max(fx))));

CS=real(fftshift(fft(S,N_x)));
CS_normal=CS/max(abs(CS));
dx=1/dfx/N_x;
x=1/2*(-1/dfx/2:dx:1/dfx/2-dx);
CS_envelope=abs(hilbert(CS_normal));

%% Calculate 3-dB bandwidth and axial resolution
BW=lambda(find(S0>0.5,1,'last'))-lambda(find(S0>0.5,1,'first'));
x_Res=x(find(CS_envelope>0.5,1,'last'))-x(find(CS_envelope>0.5,1,'first'));

%% Crop interference data into 100-micron range
CS_envelope=interp1(x,CS_envelope,-50:0.01:50);
CS_normal=interp1(x,CS_normal,-50:0.01:50);
x=-50:0.01:50;
plot(x,CS_normal,x,CS_envelope); 

%% Calculate crosstalk
%x_ct=[-3:-1,1:3]*x_Res;
%CRS_TLK=20*log10(interp1(x,CS_envelope,x_ct));
%CS_envelope_dB=20*log10(CS_envelope);
%figure
%plot(x,CS_envelope_dB,x_ct,CRS_TLK,'ro');
